#K-Path(1/A) Energy-Level(eV)
# NKPTS & NBANDS: 120  16
# Band-Index    1
   0.00000    -14.312595
   0.02918    -14.310273
   0.05835    -14.303311
   0.08753    -14.291733
   0.11670    -14.275578
   0.14588    -14.254902
   0.17505    -14.229773
   0.20423    -14.200281
   0.23340    -14.166532
   0.26258    -14.128641
   0.29175    -14.086748
   0.32093    -14.041014
   0.35010    -13.991604
   0.37928    -13.938713
   0.40845    -13.882554
   0.43763    -13.823360
   0.46680    -13.761386
   0.49598    -13.696910
   0.52515    -13.630238
   0.55433    -13.561691
   0.58350    -13.491632
   0.61268    -13.420443
   0.64185    -13.348526
   0.67103    -13.276301
   0.70020    -13.204262
   0.72938    -13.132912
   0.75855    -13.062758
   0.78773    -12.994369
   0.81690    -12.928324
   0.84608    -12.865195
   0.87525    -12.805616
   0.90443    -12.750165
   0.93360    -12.699478
   0.96278    -12.654144
   0.99195    -12.614709
   1.02113    -12.581677
   1.05030    -12.555482
   1.07948    -12.536503
   1.10865    -12.525012
   1.13783    -12.521160
   1.13783    -12.521160
   1.15451    -12.520824
   1.17118    -12.519829
   1.18786    -12.518171
   1.20454    -12.515861
   1.22122    -12.512910
   1.23790    -12.509317
   1.25458    -12.505109
   1.27125    -12.500303
   1.28793    -12.494914
   1.30461    -12.488978
   1.32129    -12.482503
   1.33797    -12.475532
   1.35465    -12.468092
   1.37132    -12.460221
   1.38800    -12.451944
   1.40468    -12.443317
   1.42136    -12.434367
   1.43804    -12.425135
   1.45472    -12.415681
   1.47139    -12.406050
   1.48807    -12.396292
   1.50475    -12.386464
   1.52143    -12.376625
   1.53811    -12.366831
   1.55479    -12.357136
   1.57146    -12.347611
   1.58814    -12.338318
   1.60482    -12.329323
   1.62150    -12.320696
   1.63818    -12.312503
   1.65486    -12.304821
   1.67153    -12.297715
   1.68821    -12.291265
   1.70489    -12.285547
   1.72157    -12.280616
   1.73825    -12.276558
   1.75493    -12.273443
   1.77160    -12.271343
   1.78828    -12.270319
   1.78828    -12.270319
   1.82163    -12.274740
   1.85499    -12.284522
   1.88834    -12.300086
   1.92169    -12.321740
   1.95504    -12.349693
   1.98839    -12.384064
   2.02174    -12.424850
   2.05510    -12.471927
   2.08845    -12.525070
   2.12180    -12.583920
   2.15515    -12.648054
   2.18850    -12.716948
   2.22185    -12.790043
   2.25521    -12.866688
   2.28856    -12.946224
   2.32191    -13.028004
   2.35526    -13.111343
   2.38861    -13.195596
   2.42196    -13.280127
   2.45531    -13.364287
   2.48867    -13.447511
   2.52202    -13.529237
   2.55537    -13.608959
   2.58872    -13.686171
   2.62207    -13.760431
   2.65542    -13.831316
   2.68878    -13.898441
   2.72213    -13.961456
   2.75548    -14.020038
   2.78883    -14.073897
   2.82218    -14.122776
   2.85553    -14.166447
   2.88889    -14.204698
   2.92224    -14.237361
   2.95559    -14.264285
   2.98894    -14.285352
   3.02229    -14.300466
   3.05564    -14.309560
   3.08899    -14.312594
 
# Band-Index    2
   3.08899    -13.081638
   3.05564    -13.080198
   3.02229    -13.075893
   2.98894    -13.068746
   2.95559    -13.058788
   2.92224    -13.046060
   2.88889    -13.030633
   2.85553    -13.012574
   2.82218    -12.991971
   2.78883    -12.968925
   2.75548    -12.943550
   2.72213    -12.915979
   2.68878    -12.886345
   2.65542    -12.854800
   2.62207    -12.821519
   2.58872    -12.786679
   2.55537    -12.750474
   2.52202    -12.713091
   2.48867    -12.674794
   2.45531    -12.635781
   2.42196    -12.596301
   2.38861    -12.556605
   2.35526    -12.516957
   2.32191    -12.477624
   2.28856    -12.438860
   2.25521    -12.401011
   2.22185    -12.364321
   2.18850    -12.329092
   2.15515    -12.295599
   2.12180    -12.264100
   2.08845    -12.234865
   2.05510    -12.208099
   2.02174    -12.184068
   1.98839    -12.162921
   1.95504    -12.144799
   1.92169    -12.129815
   1.88834    -12.117982
   1.85499    -12.109312
   1.82163    -12.103778
   1.78828    -12.101227
   1.78828    -12.101227
   1.77160    -12.101829
   1.75493    -12.103075
   1.73825    -12.104946
   1.72157    -12.107405
   1.70489    -12.110418
   1.68821    -12.113938
   1.67153    -12.117947
   1.65486    -12.122405
   1.63818    -12.127262
   1.62150    -12.132473
   1.60482    -12.137986
   1.58814    -12.143770
   1.57146    -12.149781
   1.55479    -12.155975
   1.53811    -12.162320
   1.52143    -12.168756
   1.50475    -12.175251
   1.48807    -12.181768
   1.47139    -12.188260
   1.45472    -12.194691
   1.43804    -12.201014
   1.42136    -12.207215
   1.40468    -12.213251
   1.38800    -12.219092
   1.37132    -12.224708
   1.35465    -12.230056
   1.33797    -12.235120
   1.32129    -12.239879
   1.30461    -12.244318
   1.28793    -12.248388
   1.27125    -12.252084
   1.25458    -12.255395
   1.23790    -12.258298
   1.22122    -12.260767
   1.20454    -12.262800
   1.18786    -12.264390
   1.17118    -12.265534
   1.15451    -12.266218
   1.13783    -12.266445
   1.13783    -12.266445
   1.10865    -12.268080
   1.07948    -12.272917
   1.05030    -12.280988
   1.02113    -12.292157
   0.99195    -12.306250
   0.96278    -12.323168
   0.93360    -12.342697
   0.90443    -12.364662
   0.87525    -12.388824
   0.84608    -12.414940
   0.81690    -12.442800
   0.78773    -12.472106
   0.75855    -12.502618
   0.72938    -12.534103
   0.70020    -12.566315
   0.67103    -12.598975
   0.64185    -12.631874
   0.61268    -12.664782
   0.58350    -12.697490
   0.55433    -12.729816
   0.52515    -12.761545
   0.49598    -12.792490
   0.46680    -12.822500
   0.43763    -12.851423
   0.40845    -12.879111
   0.37928    -12.905426
   0.35010    -12.930255
   0.32093    -12.953480
   0.29175    -12.975012
   0.26258    -12.994747
   0.23340    -13.012615
   0.20423    -13.028543
   0.17505    -13.042478
   0.14588    -13.054351
   0.11670    -13.064124
   0.08753    -13.071762
   0.05835    -13.077240
   0.02918    -13.080536
   0.00000    -13.081638
 
# Band-Index    3
   0.00000     -5.828761
   0.02918     -5.825974
   0.05835     -5.817636
   0.08753     -5.803827
   0.11670     -5.784730
   0.14588     -5.760483
   0.17505     -5.731318
   0.20423     -5.697480
   0.23340     -5.659568
   0.26258     -5.617975
   0.29175     -5.573324
   0.32093     -5.526353
   0.35010     -5.477973
   0.37928     -5.429326
   0.40845     -5.381790
   0.43763     -5.336985
   0.46680     -5.296847
   0.49598     -5.263686
   0.52515     -5.239647
   0.55433     -5.226977
   0.58350     -5.227251
   0.61268     -5.241066
   0.64185     -5.267810
   0.67103     -5.305907
   0.70020     -5.352942
   0.72938     -5.406548
   0.75855     -5.464446
   0.78773     -5.524578
   0.81690     -5.585265
   0.84608     -5.645023
   0.87525     -5.702590
   0.90443     -5.756871
   0.93360     -5.807001
   0.96278     -5.852231
   0.99195     -5.891763
   1.02113     -5.925011
   1.05030     -5.951413
   1.07948     -5.970569
   1.10865     -5.982230
   1.13783     -5.986114
   1.13783     -5.986114
   1.15451     -5.985062
   1.17118     -5.981932
   1.18786     -5.976705
   1.20454     -5.969394
   1.22122     -5.960014
   1.23790     -5.948557
   1.25458     -5.935059
   1.27125     -5.919537
   1.28793     -5.902001
   1.30461     -5.882491
   1.32129     -5.861032
   1.33797     -5.837653
   1.35465     -5.812376
   1.37132     -5.785250
   1.38800     -5.756311
   1.40468     -5.725617
   1.42136     -5.693189
   1.43804     -5.659062
   1.45472     -5.623299
   1.47139     -5.585991
   1.48807     -5.547171
   1.50475     -5.506909
   1.52143     -5.465322
   1.53811     -5.422484
   1.55479     -5.426746
   1.57146     -5.449396
   1.58814     -5.471228
   1.60482     -5.492097
   1.62150     -5.511865
   1.63818     -5.530342
   1.65486     -5.547413
   1.67153     -5.562995
   1.68821     -5.576985
   1.70489     -5.589315
   1.72157     -5.599729
   1.73825     -5.608162
   1.75493     -5.614540
   1.77160     -5.618826
   1.78828     -5.620837
   1.78828     -5.620837
   1.82163     -5.612311
   1.85499     -5.593883
   1.88834     -5.565461
   1.92169     -5.526714
   1.95504     -5.477497
   1.98839     -5.418031
   2.02174     -5.348390
   2.05510     -5.305601
   2.08845     -5.333463
   2.12180     -5.349947
   2.15515     -5.355530
   2.18850     -5.350979
   2.22185     -5.337534
   2.25521     -5.316425
   2.28856     -5.289277
   2.32191     -5.258448
   2.35526     -5.226328
   2.38861     -5.196410
   2.42196     -5.172223
   2.45531     -5.157473
   2.48867     -5.155502
   2.52202     -5.167559
   2.55537     -5.193564
   2.58872     -5.231293
   2.62207     -5.278111
   2.65542     -5.331149
   2.68878     -5.387765
   2.72213     -5.445720
   2.75548     -5.503197
   2.78883     -5.558811
   2.82218     -5.611119
   2.85553     -5.659275
   2.88889     -5.702470
   2.92224     -5.740013
   2.95559     -5.771463
   2.98894     -5.796281
   3.02229     -5.814229
   3.05564     -5.825119
   3.08899     -5.828761
 
# Band-Index    4
   3.08899     -2.879432
   3.05564     -2.886510
   3.02229     -2.908290
   2.98894     -2.943968
   2.95559     -2.992608
   2.92224     -3.053038
   2.88889     -3.123803
   2.85553     -3.203196
   2.82218     -3.289549
   2.78883     -3.380915
   2.75548     -3.475343
   2.72213     -3.570655
   2.68878     -3.664561
   2.65542     -3.754496
   2.62207     -3.838024
   2.58872     -3.911917
   2.55537     -3.973167
   2.52202     -4.018752
   2.48867     -4.047080
   2.45531     -4.057686
   2.42196     -4.052423
   2.38861     -4.063214
   2.35526     -4.202197
   2.32191     -4.341250
   2.28856     -4.478039
   2.25521     -4.611069
   2.22185     -4.738899
   2.18850     -4.860552
   2.15515     -4.975069
   2.12180     -5.081657
   2.08845     -5.179806
   2.05510     -5.268793
   2.02174     -5.266138
   1.98839     -5.215192
   1.95504     -5.153342
   1.92169     -5.081949
   1.88834     -5.003396
   1.85499     -4.922829
   1.82163     -4.850488
   1.78828     -4.806046
   1.78828     -4.806046
   1.77160     -4.818043
   1.75493     -4.841831
   1.73825     -4.874558
   1.72157     -4.913461
   1.70489     -4.956433
   1.68821     -5.001934
   1.67153     -5.048927
   1.65486     -5.096738
   1.63818     -5.144787
   1.62150     -5.192717
   1.60482     -5.240236
   1.58814     -5.287131
   1.57146     -5.333221
   1.55479     -5.378348
   1.53811     -5.403386
   1.52143     -5.379600
   1.50475     -5.355420
   1.48807     -5.331058
   1.47139     -5.306696
   1.45472     -5.282485
   1.43804     -5.258483
   1.42136     -5.235038
   1.40468     -5.212175
   1.38800     -5.190039
   1.37132     -5.168883
   1.35465     -5.148672
   1.33797     -5.129582
   1.32129     -5.111700
   1.30461     -5.095185
   1.28793     -5.080006
   1.27125     -5.066294
   1.25458     -5.054104
   1.23790     -5.043470
   1.22122     -5.034409
   1.20454     -5.026948
   1.18786     -5.021130
   1.17118     -5.016968
   1.15451     -5.014466
   1.13783     -5.013626
   1.13783     -5.013626
   1.10865     -5.009577
   1.07948     -4.997359
   1.05030     -4.977232
   1.02113     -4.949352
   0.99195     -4.913628
   0.96278     -4.870669
   0.93360     -4.820637
   0.90443     -4.764017
   0.87525     -4.701149
   0.84608     -4.632385
   0.81690     -4.558368
   0.78773     -4.479490
   0.75855     -4.396247
   0.72938     -4.309182
   0.70020     -4.218864
   0.67103     -4.128779
   0.64185     -4.117419
   0.61268     -4.099051
   0.58350     -4.071133
   0.55433     -4.032257
   0.52515     -3.982307
   0.49598     -3.921981
   0.46680     -3.852992
   0.43763     -3.777381
   0.40845     -3.696800
   0.37928     -3.613184
   0.35010     -3.528238
   0.32093     -3.443392
   0.29175     -3.360261
   0.26258     -3.280123
   0.23340     -3.204244
   0.20423     -3.133879
   0.17505     -3.070098
   0.14588     -3.014131
   0.11670     -2.966828
   0.08753     -2.929079
   0.05835     -2.901564
   0.02918     -2.884881
   0.00000     -2.879432
 
# Band-Index    5
   0.00000     -2.879319
   0.02918     -2.876699
   0.05835     -2.868924
   0.08753     -2.856072
   0.11670     -2.838223
   0.14588     -2.815374
   0.17505     -2.787623
   0.20423     -2.755203
   0.23340     -2.718206
   0.26258     -2.723084
   0.29175     -2.822700
   0.32093     -2.922886
   0.35010     -3.023605
   0.37928     -3.124678
   0.40845     -3.226097
   0.43763     -3.327728
   0.46680     -3.429472
   0.49598     -3.531190
   0.52515     -3.632605
   0.55433     -3.733504
   0.58350     -3.833565
   0.61268     -3.932511
   0.64185     -4.029958
   0.67103     -4.125391
   0.70020     -4.135325
   0.72938     -4.140386
   0.75855     -4.146004
   0.78773     -4.153659
   0.81690     -4.164133
   0.84608     -4.177495
   0.87525     -4.193469
   0.90443     -4.211257
   0.93360     -4.229947
   0.96278     -4.248649
   0.99195     -4.266141
   1.02113     -4.281809
   1.05030     -4.294719
   1.07948     -4.304373
   1.10865     -4.310545
   1.13783     -4.312523
   1.13783     -4.312523
   1.15451     -4.312114
   1.17118     -4.311030
   1.18786     -4.309228
   1.20454     -4.306790
   1.22122     -4.303653
   1.23790     -4.299711
   1.25458     -4.295148
   1.27125     -4.289968
   1.28793     -4.284192
   1.30461     -4.277987
   1.32129     -4.271141
   1.33797     -4.263855
   1.35465     -4.256160
   1.37132     -4.248173
   1.38800     -4.239768
   1.40468     -4.231190
   1.42136     -4.222367
   1.43804     -4.213410
   1.45472     -4.204465
   1.47139     -4.195517
   1.48807     -4.186704
   1.50475     -4.178144
   1.52143     -4.169946
   1.53811     -4.162337
   1.55479     -4.155327
   1.57146     -4.149269
   1.58814     -4.144438
   1.60482     -4.141225
   1.62150     -4.140147
   1.63818     -4.141820
   1.65486     -4.147115
   1.67153     -4.156971
   1.68821     -4.172104
   1.70489     -4.192847
   1.72157     -4.218161
   1.73825     -4.245938
   1.75493     -4.272617
   1.77160     -4.293831
   1.78828     -4.305181
   1.78828     -4.305181
   1.82163     -4.259928
   1.85499     -4.183574
   1.88834     -4.097055
   1.92169     -4.015436
   1.95504     -3.949690
   1.98839     -3.903866
   2.02174     -3.874653
   2.05510     -3.857467
   2.08845     -3.849561
   2.12180     -3.849501
   2.15515     -3.856778
   2.18850     -3.870861
   2.22185     -3.891282
   2.25521     -3.917049
   2.28856     -3.946657
   2.32191     -3.978123
   2.35526     -4.008587
   2.38861     -4.034661
   2.42196     -3.927214
   2.45531     -3.797866
   2.48867     -3.678994
   2.52202     -3.572172
   2.55537     -3.475422
   2.58872     -3.384536
   2.62207     -3.295571
   2.65542     -3.206008
   2.68878     -3.114244
   2.72213     -3.019549
   2.75548     -2.921749
   2.78883     -2.820974
   2.82218     -2.717800
   2.85553     -2.719803
   2.88889     -2.760935
   2.92224     -2.796399
   2.95559     -2.825907
   2.98894     -2.849108
   3.02229     -2.865824
   3.05564     -2.875901
   3.08899     -2.879319
 
# Band-Index    6
   3.08899     -1.967296
   3.05564     -2.007838
   3.02229     -2.092125
   2.98894     -2.190149
   2.95559     -2.293634
   2.92224     -2.399515
   2.88889     -2.506317
   2.85553     -2.612651
   2.82218     -2.673510
   2.78883     -2.622838
   2.75548     -2.568409
   2.72213     -2.511335
   2.68878     -2.545257
   2.65542     -2.672901
   2.62207     -2.804055
   2.58872     -2.935381
   2.55537     -3.062449
   2.52202     -3.179594
   2.48867     -3.281239
   2.45531     -3.363889
   2.42196     -3.427817
   2.38861     -3.475396
   2.35526     -3.509313
   2.32191     -3.531622
   2.28856     -3.543567
   2.25521     -3.546349
   2.22185     -3.540551
   2.18850     -3.527001
   2.15515     -3.506209
   2.12180     -3.478846
   2.08845     -3.445798
   2.05510     -3.407798
   2.02174     -3.441026
   1.98839     -3.546025
   1.95504     -3.635399
   1.92169     -3.703384
   1.88834     -3.750466
   1.85499     -3.782105
   1.82163     -3.802866
   1.78828     -3.813612
   1.78828     -3.813612
   1.77160     -3.810200
   1.75493     -3.801610
   1.73825     -3.786462
   1.72157     -3.763175
   1.70489     -3.730437
   1.68821     -3.687558
   1.67153     -3.634866
   1.65486     -3.573395
   1.63818     -3.504505
   1.62150     -3.429578
   1.60482     -3.349785
   1.58814     -3.275295
   1.57146     -3.291307
   1.55479     -3.306739
   1.53811     -3.321457
   1.52143     -3.335281
   1.50475     -3.348139
   1.48807     -3.359995
   1.47139     -3.370802
   1.45472     -3.380483
   1.43804     -3.388978
   1.42136     -3.396364
   1.40468     -3.402592
   1.38800     -3.407626
   1.37132     -3.411745
   1.35465     -3.414765
   1.33797     -3.416867
   1.32129     -3.418119
   1.30461     -3.418686
   1.28793     -3.418541
   1.27125     -3.417980
   1.25458     -3.417050
   1.23790     -3.415912
   1.22122     -3.414677
   1.20454     -3.413425
   1.18786     -3.412346
   1.17118     -3.411522
   1.15451     -3.410920
   1.13783     -3.410720
   1.13783     -3.410720
   1.10865     -3.408805
   1.07948     -3.402996
   1.05030     -3.393442
   1.02113     -3.379936
   0.99195     -3.362610
   0.96278     -3.341532
   0.93360     -3.316685
   0.90443     -3.288204
   0.87525     -3.256090
   0.84608     -3.220495
   0.81690     -3.181470
   0.78773     -3.139150
   0.75855     -3.093639
   0.72938     -3.045118
   0.70020     -2.993569
   0.67103     -2.939328
   0.64185     -2.882542
   0.61268     -2.823335
   0.58350     -2.762099
   0.55433     -2.698833
   0.52515     -2.634180
   0.49598     -2.568358
   0.46680     -2.501610
   0.43763     -2.434442
   0.40845     -2.413197
   0.37928     -2.472506
   0.35010     -2.528899
   0.32093     -2.581979
   0.29175     -2.631414
   0.26258     -2.676849
   0.23340     -2.624226
   0.20423     -2.526400
   0.17505     -2.429788
   0.14588     -2.334800
   0.11670     -2.241990
   0.08753     -2.152537
   0.05835     -2.069097
   0.02918     -1.999281
   0.00000     -1.967296
 
# Band-Index    7
   0.00000     -1.756628
   0.02918     -1.760484
   0.05835     -1.772783
   0.08753     -1.792753
   0.11670     -1.820346
   0.14588     -1.854832
   0.17505     -1.895556
   0.20423     -1.942068
   0.23340     -1.993496
   0.26258     -2.049270
   0.29175     -2.108523
   0.32093     -2.170557
   0.35010     -2.234763
   0.37928     -2.300436
   0.40845     -2.367210
   0.43763     -2.351106
   0.46680     -2.286837
   0.49598     -2.220845
   0.52515     -2.153384
   0.55433     -2.085012
   0.58350     -2.016238
   0.61268     -1.947570
   0.64185     -1.879543
   0.67103     -1.812605
   0.70020     -1.756111
   0.72938     -1.798981
   0.75855     -1.839352
   0.78773     -1.876905
   0.81690     -1.911475
   0.84608     -1.942897
   0.87525     -1.971221
   0.90443     -1.996354
   0.93360     -2.018378
   0.96278     -2.037366
   0.99195     -2.053284
   1.02113     -2.066218
   1.05030     -2.076194
   1.07948     -2.083233
   1.10865     -2.087539
   1.13783     -2.088890
   1.13783     -2.088890
   1.15451     -2.088734
   1.17118     -2.088137
   1.18786     -2.087129
   1.20454     -2.085807
   1.22122     -2.084263
   1.23790     -2.082557
   1.25458     -2.080803
   1.27125     -2.079159
   1.28793     -2.077756
   1.30461     -2.076715
   1.32129     -2.076128
   1.33797     -2.076231
   1.35465     -2.077092
   1.37132     -2.078882
   1.38800     -2.159752
   1.40468     -2.250962
   1.42136     -2.343399
   1.43804     -2.436760
   1.45472     -2.530744
   1.47139     -2.625097
   1.48807     -2.719463
   1.50475     -2.813507
   1.52143     -2.906917
   1.53811     -2.999351
   1.55479     -3.090327
   1.57146     -3.179439
   1.58814     -3.266110
   1.60482     -3.258776
   1.62150     -3.242025
   1.63818     -3.225265
   1.65486     -3.208619
   1.67153     -3.192463
   1.68821     -3.177059
   1.70489     -3.162850
   1.72157     -3.150082
   1.73825     -3.139212
   1.75493     -3.130653
   1.77160     -3.124799
   1.78828     -3.121931
   1.78828     -3.121932
   1.82163     -3.133811
   1.85499     -3.157952
   1.88834     -3.191901
   1.92169     -3.232437
   1.95504     -3.276538
   1.98839     -3.321769
   2.02174     -3.366061
   2.05510     -3.326789
   2.08845     -3.208110
   2.12180     -3.087755
   2.15515     -2.967667
   2.18850     -2.849356
   2.22185     -2.734388
   2.25521     -2.624337
   2.28856     -2.521069
   2.32191     -2.427069
   2.35526     -2.345241
   2.38861     -2.279142
   2.42196     -2.231865
   2.45531     -2.205599
   2.48867     -2.200808
   2.52202     -2.215250
   2.55537     -2.245783
   2.58872     -2.288189
   2.62207     -2.338894
   2.65542     -2.394635
   2.68878     -2.452849
   2.72213     -2.423374
   2.75548     -2.309247
   2.78883     -2.204263
   2.82218     -2.109431
   2.85553     -2.025629
   2.88889     -1.953250
   2.92224     -1.892370
   2.95559     -1.842901
   2.98894     -1.804730
   3.02229     -1.777663
   3.05564     -1.761538
   3.08899     -1.756628
 
# Band-Index    8
   3.08899     -1.756128
   3.05564     -1.720440
   3.02229     -1.649257
   2.98894     -1.573044
   2.95559     -1.499721
   2.92224     -1.431902
   2.88889     -1.370895
   2.85553     -1.317161
   2.82218     -1.271194
   2.78883     -1.233087
   2.75548     -1.202789
   2.72213     -1.180171
   2.68878     -1.165039
   2.65542     -1.157198
   2.62207     -1.156463
   2.58872     -1.162662
   2.55537     -1.175522
   2.52202     -1.194778
   2.48867     -1.220426
   2.45531     -1.252103
   2.42196     -1.289648
   2.38861     -1.332707
   2.35526     -1.380994
   2.32191     -1.434103
   2.28856     -1.491607
   2.25521     -1.553164
   2.22185     -1.618157
   2.18850     -1.686076
   2.15515     -1.756262
   2.12180     -1.828047
   2.08845     -1.900605
   2.05510     -1.973023
   2.02174     -2.044507
   1.98839     -2.113596
   1.95504     -2.179016
   1.92169     -2.238913
   1.88834     -2.291052
   1.85499     -2.332889
   1.82163     -2.361840
   1.78828     -2.375738
   1.78828     -2.375738
   1.77160     -2.372452
   1.75493     -2.365769
   1.73825     -2.356082
   1.72157     -2.343853
   1.70489     -2.329592
   1.68821     -2.313725
   1.67153     -2.296728
   1.65486     -2.279047
   1.63818     -2.261006
   1.62150     -2.242932
   1.60482     -2.225039
   1.58814     -2.207630
   1.57146     -2.190910
   1.55479     -2.175049
   1.53811     -2.160192
   1.52143     -2.146453
   1.50475     -2.133896
   1.48807     -2.122605
   1.47139     -2.112588
   1.45472     -2.103860
   1.43804     -2.096402
   1.42136     -2.090228
   1.40468     -2.085284
   1.38800     -2.081488
   1.37132     -2.070040
   1.35465     -1.982156
   1.33797     -1.896532
   1.32129     -1.813365
   1.30461     -1.733027
   1.28793     -1.655789
   1.27125     -1.582187
   1.25458     -1.512565
   1.23790     -1.447488
   1.22122     -1.387623
   1.20454     -1.333751
   1.18786     -1.287542
   1.17118     -1.251178
   1.15451     -1.227299
   1.13783     -1.219013
   1.13783     -1.219013
   1.10865     -1.221521
   1.07948     -1.228817
   1.05030     -1.241216
   1.02113     -1.258459
   0.99195     -1.280621
   0.96278     -1.307744
   0.93360     -1.339432
   0.90443     -1.376220
   0.87525     -1.417516
   0.84608     -1.463209
   0.81690     -1.513020
   0.78773     -1.566717
   0.75855     -1.624024
   0.72938     -1.684465
   0.70020     -1.747466
   0.67103     -1.710944
   0.64185     -1.663950
   0.61268     -1.615769
   0.58350     -1.567111
   0.55433     -1.518929
   0.52515     -1.472153
   0.49598     -1.427947
   0.46680     -1.387557
   0.43763     -1.352425
   0.40845     -1.323804
   0.37928     -1.302865
   0.35010     -1.290746
   0.32093     -1.288141
   0.29175     -1.295598
   0.26258     -1.313216
   0.23340     -1.340841
   0.20423     -1.377978
   0.17505     -1.423901
   0.14588     -1.477469
   0.11670     -1.537408
   0.08753     -1.601947
   0.05835     -1.668037
   0.02918     -1.727723
   0.00000     -1.756128
 
# Band-Index    9
   0.00000     -0.246428
   0.02918     -0.247452
   0.05835     -0.250746
   0.08753     -0.256477
   0.11670     -0.264919
   0.14588     -0.276413
   0.17505     -0.291394
   0.20423     -0.310378
   0.23340     -0.334080
   0.26258     -0.362964
   0.29175     -0.397530
   0.32093     -0.438119
   0.35010     -0.484918
   0.37928     -0.537749
   0.40845     -0.596288
   0.43763     -0.659601
   0.46680     -0.726570
   0.49598     -0.795752
   0.52515     -0.865365
   0.55433     -0.933433
   0.58350     -0.998034
   0.61268     -1.057142
   0.64185     -1.108845
   0.67103     -1.151412
   0.70020     -1.183495
   0.72938     -1.204130
   0.75855     -1.212930
   0.78773     -1.210108
   0.81690     -1.196529
   0.84608     -1.173560
   0.87525     -1.142870
   0.90443     -1.106578
   0.93360     -1.067061
   0.96278     -1.026897
   0.99195     -0.988034
   1.02113     -0.952949
   1.05030     -0.923427
   1.07948     -0.901117
   1.10865     -0.887416
   1.13783     -0.882690
   1.13783     -0.882690
   1.15451     -0.877890
   1.17118     -0.865084
   1.18786     -0.846952
   1.20454     -0.826021
   1.22122     -0.804357
   1.23790     -0.782731
   1.25458     -0.762116
   1.27125     -0.742643
   1.28793     -0.724240
   1.30461     -0.707165
   1.32129     -0.691075
   1.33797     -0.675916
   1.35465     -0.661564
   1.37132     -0.647755
   1.38800     -0.634254
   1.40468     -0.620965
   1.42136     -0.607626
   1.43804     -0.594057
   1.45472     -0.580166
   1.47139     -0.565788
   1.48807     -0.550812
   1.50475     -0.535177
   1.52143     -0.518896
   1.53811     -0.501881
   1.55479     -0.484180
   1.57146     -0.465866
   1.58814     -0.447014
   1.60482     -0.427764
   1.62150     -0.408302
   1.63818     -0.388852
   1.65486     -0.369679
   1.67153     -0.351031
   1.68821     -0.333424
   1.70489     -0.317189
   1.72157     -0.302685
   1.73825     -0.290414
   1.75493     -0.280768
   1.77160     -0.274200
   1.78828     -0.270952
   1.78828     -0.270952
   1.82163     -0.284743
   1.85499     -0.313809
   1.88834     -0.356614
   1.92169     -0.410507
   1.95504     -0.472201
   1.98839     -0.538647
   2.02174     -0.607029
   2.05510     -0.674804
   2.08845     -0.740193
   2.12180     -0.801387
   2.15515     -0.857419
   2.18850     -0.907555
   2.22185     -0.951451
   2.25521     -0.988864
   2.28856     -1.019295
   2.32191     -1.041997
   2.35526     -1.055445
   2.38861     -1.057425
   2.42196     -1.045740
   2.45531     -1.018617
   2.48867     -0.976395
   2.52202     -0.920840
   2.55537     -0.855746
   2.58872     -0.784687
   2.62207     -0.711757
   2.65542     -0.640053
   2.68878     -0.572245
   2.72213     -0.510084
   2.75548     -0.454839
   2.78883     -0.407147
   2.82218     -0.366891
   2.85553     -0.333842
   2.88889     -0.307362
   2.92224     -0.286675
   2.95559     -0.271094
   2.98894     -0.259762
   3.02229     -0.252127
   3.05564     -0.247755
   3.08899     -0.246428
 
# Band-Index   10
   3.08899      2.525105
   3.05564      2.520009
   3.02229      2.503666
   2.98894      2.477950
   2.95559      2.444943
   2.92224      2.407297
   2.88889      2.367682
   2.85553      2.328883
   2.82218      2.293229
   2.78883      2.221753
   2.75548      2.146147
   2.72213      2.075591
   2.68878      2.010399
   2.65542      1.950213
   2.62207      1.894694
   2.58872      1.843565
   2.55537      1.797216
   2.52202      1.757150
   2.48867      1.725068
   2.45531      1.703275
   2.42196      1.693571
   2.38861      1.697750
   2.35526      1.716104
   2.32191      1.748371
   2.28856      1.792234
   2.25521      1.842962
   2.22185      1.891855
   2.18850      1.926159
   2.15515      1.934938
   2.12180      1.916878
   2.08845      1.877361
   2.05510      1.822463
   2.02174      1.756999
   1.98839      1.685841
   1.95504      1.613254
   1.92169      1.543688
   1.88834      1.481640
   1.85499      1.431336
   1.82163      1.396496
   1.78828      1.379793
   1.78828      1.379793
   1.77160      1.383801
   1.75493      1.392198
   1.73825      1.404646
   1.72157      1.420763
   1.70489      1.440037
   1.68821      1.462138
   1.67153      1.486554
   1.65486      1.512853
   1.63818      1.540571
   1.62150      1.569321
   1.60482      1.598782
   1.58814      1.628555
   1.57146      1.658327
   1.55479      1.687809
   1.53811      1.716718
   1.52143      1.744787
   1.50475      1.771792
   1.48807      1.797500
   1.47139      1.821695
   1.45472      1.844158
   1.43804      1.864770
   1.42136      1.883315
   1.40468      1.899642
   1.38800      1.913693
   1.37132      1.925279
   1.35465      1.934263
   1.33797      1.940811
   1.32129      1.945037
   1.30461      1.947146
   1.28793      1.947393
   1.27125      1.946081
   1.25458      1.943734
   1.23790      1.940678
   1.22122      1.937252
   1.20454      1.933979
   1.18786      1.931093
   1.17118      1.928857
   1.15451      1.927433
   1.13783      1.926927
   1.13783      1.926927
   1.10865      1.926229
   1.07948      1.924368
   1.05030      1.921572
   1.02113      1.918124
   0.99195      1.914463
   0.96278      1.911043
   0.93360      1.908384
   0.90443      1.906703
   0.87525      1.907014
   0.84608      1.909744
   0.81690      1.915097
   0.78773      1.923642
   0.75855      1.935458
   0.72938      1.950786
   0.70020      1.969794
   0.67103      1.984525
   0.64185      1.961774
   0.61268      1.943989
   0.58350      1.931937
   0.55433      1.926162
   0.52515      1.927547
   0.49598      1.936964
   0.46680      1.954796
   0.43763      1.981368
   0.40845      2.016703
   0.37928      2.060867
   0.35010      2.113176
   0.32093      2.172679
   0.29175      2.238055
   0.26258      2.307786
   0.23340      2.346119
   0.20423      2.372900
   0.17505      2.402887
   0.14588      2.433684
   0.11670      2.463070
   0.08753      2.488684
   0.05835      2.508540
   0.02918      2.521063
   0.00000      2.525105
 
# Band-Index   11
   0.00000      2.525662
   0.02918      2.529902
   0.05835      2.543127
   0.08753      2.564853
   0.11670      2.594532
   0.14588      2.587283
   0.17505      2.522130
   0.20423      2.452184
   0.23340      2.379903
   0.26258      2.324732
   0.29175      2.310671
   0.32093      2.305526
   0.35010      2.310197
   0.37928      2.325306
   0.40845      2.330051
   0.43763      2.284789
   0.46680      2.240498
   0.49598      2.197309
   0.52515      2.156212
   0.55433      2.117564
   0.58350      2.081509
   0.61268      2.048497
   0.64185      2.018730
   0.67103      1.992501
   0.70020      2.011363
   0.72938      2.041683
   0.75855      2.074753
   0.78773      2.110014
   0.81690      2.146745
   0.84608      2.184441
   0.87525      2.222339
   0.90443      2.259901
   0.93360      2.296402
   0.96278      2.330823
   0.99195      2.362458
   1.02113      2.390257
   1.05030      2.413302
   1.07948      2.430588
   1.10865      2.441392
   1.13783      2.445215
   1.13783      2.445215
   1.15451      2.445509
   1.17118      2.446442
   1.18786      2.448092
   1.20454      2.450663
   1.22122      2.454274
   1.23790      2.459176
   1.25458      2.465542
   1.27125      2.473641
   1.28793      2.483731
   1.30461      2.496051
   1.32129      2.510775
   1.33797      2.527979
   1.35465      2.547750
   1.37132      2.570016
   1.38800      2.594641
   1.40468      2.621427
   1.42136      2.650262
   1.43804      2.680917
   1.45472      2.713041
   1.47139      2.746428
   1.48807      2.780777
   1.50475      2.815823
   1.52143      2.851328
   1.53811      2.887032
   1.55479      2.922649
   1.57146      2.957902
   1.58814      2.972352
   1.60482      2.945779
   1.62150      2.921839
   1.63818      2.900612
   1.65486      2.882003
   1.67153      2.865922
   1.68821      2.852192
   1.70489      2.840751
   1.72157      2.831657
   1.73825      2.824695
   1.75493      2.819758
   1.77160      2.816645
   1.78828      2.815354
   1.78828      2.815354
   1.82163      2.820002
   1.85499      2.828565
   1.88834      2.839212
   1.92169      2.850206
   1.95504      2.860085
   1.98839      2.866780
   2.02174      2.779664
   2.05510      2.669371
   2.08845      2.560597
   2.12180      2.459711
   2.15515      2.374659
   2.18850      2.313255
   2.22185      2.276694
   2.25521      2.257237
   2.28856      2.245367
   2.32191      2.235232
   2.35526      2.224740
   2.38861      2.213861
   2.42196      2.203392
   2.45531      2.195308
   2.48867      2.191225
   2.52202      2.193194
   2.55537      2.202810
   2.58872      2.221582
   2.62207      2.226913
   2.65542      2.216999
   2.68878      2.215619
   2.72213      2.222984
   2.75548      2.238918
   2.78883      2.262739
   2.82218      2.301505
   2.85553      2.383153
   2.88889      2.464504
   2.92224      2.542581
   2.95559      2.613758
   2.98894      2.576934
   3.02229      2.548354
   3.05564      2.531026
   3.08899      2.525662
 
# Band-Index   12
   3.08899      2.760345
   3.05564      2.750374
   3.02229      2.721004
   2.98894      2.674432
   2.95559      2.616365
   2.92224      2.666022
   2.88889      2.630089
   2.85553      2.586137
   2.82218      2.537766
   2.78883      2.486099
   2.75548      2.433132
   2.72213      2.380766
   2.68878      2.331158
   2.65542      2.286789
   2.62207      2.249659
   2.58872      2.245009
   2.55537      2.270690
   2.52202      2.303416
   2.48867      2.342057
   2.45531      2.385761
   2.42196      2.433467
   2.38861      2.484089
   2.35526      2.536347
   2.32191      2.588957
   2.28856      2.640710
   2.25521      2.689881
   2.22185      2.735244
   2.18850      2.775325
   2.15515      2.808928
   2.12180      2.835235
   2.08845      2.853908
   2.05510      2.864996
   2.02174      2.868876
   1.98839      2.886473
   1.95504      2.985395
   1.92169      3.072626
   1.88834      3.144967
   1.85499      3.199808
   1.82163      3.235702
   1.78828      3.252495
   1.78828      3.252495
   1.77160      3.248510
   1.75493      3.240375
   1.73825      3.228296
   1.72157      3.212579
   1.70489      3.193453
   1.68821      3.171353
   1.67153      3.146526
   1.65486      3.119268
   1.63818      3.089950
   1.62150      3.058858
   1.60482      3.026311
   1.58814      2.992557
   1.57146      3.001568
   1.55479      3.033409
   1.53811      3.067798
   1.52143      3.104777
   1.50475      3.144058
   1.48807      3.185545
   1.47139      3.229207
   1.45472      3.274789
   1.43804      3.322001
   1.42136      3.370518
   1.40468      3.420043
   1.38800      3.470196
   1.37132      3.520167
   1.35465      3.569826
   1.33797      3.617759
   1.32129      3.662346
   1.30461      3.700166
   1.28793      3.725051
   1.27125      3.731929
   1.25458      3.725951
   1.23790      3.715025
   1.22122      3.703349
   1.20454      3.692769
   1.18786      3.684030
   1.17118      3.677574
   1.15451      3.673634
   1.13783      3.672316
   1.13783      3.672316
   1.10865      3.669198
   1.07948      3.659981
   1.05030      3.644337
   1.02113      3.622364
   0.99195      3.594123
   0.96278      3.559353
   0.93360      3.518278
   0.90443      3.470734
   0.87525      3.417099
   0.84608      3.357850
   0.81690      3.293259
   0.78773      3.224146
   0.75855      3.151170
   0.72938      3.075060
   0.70020      2.996991
   0.67103      2.917915
   0.64185      2.838606
   0.61268      2.760621
   0.58350      2.685083
   0.55433      2.613010
   0.52515      2.545871
   0.49598      2.485053
   0.46680      2.431609
   0.43763      2.386544
   0.40845      2.350854
   0.37928      2.375830
   0.35010      2.421498
   0.32093      2.466535
   0.29175      2.510334
   0.26258      2.552392
   0.23340      2.592058
   0.20423      2.628693
   0.17505      2.661789
   0.14588      2.631648
   0.11670      2.645320
   0.08753      2.693707
   0.05835      2.730143
   0.02918      2.752806
   0.00000      2.760345
 
# Band-Index   13
   0.00000      2.760567
   0.02918      2.757617
   0.05835      2.748943
   0.08753      2.734761
   0.11670      2.715242
   0.14588      2.690765
   0.17505      2.675580
   0.20423      2.725264
   0.23340      2.780091
   0.26258      2.839015
   0.29175      2.901205
   0.32093      2.965881
   0.35010      3.032169
   0.37928      3.099318
   0.40845      3.166508
   0.43763      3.233270
   0.46680      3.298877
   0.49598      3.362816
   0.52515      3.424758
   0.55433      3.484357
   0.58350      3.541029
   0.61268      3.594876
   0.64185      3.645567
   0.67103      3.693102
   0.70020      3.737198
   0.72938      3.778003
   0.75855      3.815522
   0.78773      3.849761
   0.81690      3.880630
   0.84608      3.908440
   0.87525      3.933099
   0.90443      3.954892
   0.93360      3.973785
   0.96278      3.989823
   0.99195      4.003274
   1.02113      4.014157
   1.05030      4.022563
   1.07948      4.028754
   1.10865      4.032321
   1.13783      4.033529
   1.13783      4.033529
   1.15451      4.030276
   1.17118      4.020475
   1.18786      4.004829
   1.20454      3.983648
   1.22122      3.957734
   1.23790      3.928508
   1.25458      3.898210
   1.27125      3.871545
   1.28793      3.856997
   1.30461      3.860057
   1.32129      3.876262
   1.33797      3.899710
   1.35465      3.927334
   1.37132      3.957723
   1.38800      3.990158
   1.40468      4.024021
   1.42136      4.058963
   1.43804      4.094660
   1.45472      4.130695
   1.47139      4.166966
   1.48807      4.203128
   1.50475      4.238895
   1.52143      4.274030
   1.53811      4.308282
   1.55479      4.341420
   1.57146      4.373191
   1.58814      4.403405
   1.60482      4.431862
   1.62150      4.458376
   1.63818      4.482836
   1.65486      4.505048
   1.67153      4.524893
   1.68821      4.542277
   1.70489      4.557103
   1.72157      4.569406
   1.73825      4.579112
   1.75493      4.586252
   1.77160      4.590865
   1.78828      4.593008
   1.78828      4.593008
   1.82163      4.584874
   1.85499      4.568721
   1.88834      4.545614
   1.92169      4.517133
   1.95504      4.484854
   1.98839      4.450256
   2.02174      4.414776
   2.05510      4.379691
   2.08845      4.345406
   2.12180      4.312320
   2.15515      4.280100
   2.18850      4.247950
   2.22185      4.214643
   2.25521      4.178810
   2.28856      4.139227
   2.32191      4.094560
   2.35526      4.043907
   2.38861      3.986692
   2.42196      3.922467
   2.45531      3.851560
   2.48867      3.774208
   2.52202      3.691065
   2.55537      3.602986
   2.58872      3.511215
   2.62207      3.416768
   2.65542      3.321000
   2.68878      3.225249
   2.72213      3.130865
   2.75548      3.039202
   2.78883      2.951599
   2.82218      2.869347
   2.85553      2.793577
   2.88889      2.725509
   2.92224      2.668814
   2.95559      2.701117
   2.98894      2.726873
   3.02229      2.745559
   3.05564      2.756844
   3.08899      2.760567
 
# Band-Index   14
   3.08899      5.007469
   3.05564      5.013271
   3.02229      5.030354
   2.98894      5.057869
   2.95559      5.094765
   2.92224      5.140062
   2.88889      5.193031
   2.85553      5.253185
   2.82218      5.320288
   2.78883      5.394207
   2.75548      5.474928
   2.72213      5.562429
   2.68878      5.656706
   2.65542      5.757728
   2.62207      5.865425
   2.58872      5.979698
   2.55537      6.100386
   2.52202      6.227298
   2.48867      6.360071
   2.45531      6.498315
   2.42196      6.641328
   2.38861      6.788215
   2.35526      6.937376
   2.32191      7.086157
   2.28856      7.229540
   2.25521      7.356915
   2.22185      7.446955
   2.18850      7.471162
   2.15515      7.429911
   2.12180      7.354412
   2.08845      7.268166
   2.05510      7.183619
   2.02174      7.106829
   1.98839      7.042501
   1.95504      6.993917
   1.92169      6.963176
   1.88834      6.952090
   1.85499      6.959844
   1.82163      6.979769
   1.78828      6.999063
   1.78828      6.999063
   1.77160      6.991638
   1.75493      6.975353
   1.73825      6.951340
   1.72157      6.921559
   1.70489      6.887836
   1.68821      6.851516
   1.67153      6.813450
   1.65486      6.774200
   1.63818      6.734379
   1.62150      6.694448
   1.60482      6.654852
   1.58814      6.615516
   1.57146      6.576589
   1.55479      6.538192
   1.53811      6.500147
   1.52143      6.462997
   1.50475      6.426611
   1.48807      6.390960
   1.47139      6.356169
   1.45472      6.322245
   1.43804      6.289551
   1.42136      6.257547
   1.40468      6.226583
   1.38800      6.196635
   1.37132      6.167739
   1.35465      6.140068
   1.33797      6.113656
   1.32129      6.088636
   1.30461      6.064856
   1.28793      6.043044
   1.27125      6.022847
   1.25458      6.004519
   1.23790      5.988234
   1.22122      5.974157
   1.20454      5.962708
   1.18786      5.953595
   1.17118      5.946986
   1.15451      5.942988
   1.13783      5.941528
   1.13783      5.941528
   1.10865      5.954477
   1.07948      5.993721
   1.05030      6.056452
   1.02113      6.141381
   0.99195      6.247213
   0.96278      6.369165
   0.93360      6.504471
   0.90443      6.647297
   0.87525      6.789698
   0.84608      6.913849
   0.81690      6.983823
   0.78773      6.970836
   0.75855      6.900340
   0.72938      6.804586
   0.70020      6.698362
   0.67103      6.587827
   0.64185      6.476190
   0.61268      6.365201
   0.58350      6.256029
   0.55433      6.149505
   0.52515      6.046197
   0.49598      5.946594
   0.46680      5.851022
   0.43763      5.759724
   0.40845      5.672917
   0.37928      5.590740
   0.35010      5.513296
   0.32093      5.440678
   0.29175      5.372930
   0.26258      5.310124
   0.23340      5.252333
   0.20423      5.199679
   0.17505      5.152358
   0.14588      5.110692
   0.11670      5.075157
   0.08753      5.046373
   0.05835      5.025055
   0.02918      5.011913
   0.00000      5.007468
 
# Band-Index   15
   0.00000      5.147602
   0.02918      5.150870
   0.05835      5.160645
   0.08753      5.176902
   0.11670      5.199609
   0.14588      5.228721
   0.17505      5.264191
   0.20423      5.305956
   0.23340      5.353965
   0.26258      5.408151
   0.29175      5.468453
   0.32093      5.534799
   0.35010      5.607115
   0.37928      5.685311
   0.40845      5.769274
   0.43763      5.858892
   0.46680      5.954007
   0.49598      6.054443
   0.52515      6.160007
   0.55433      6.270434
   0.58350      6.385358
   0.61268      6.504391
   0.64185      6.626944
   0.67103      6.752292
   0.70020      6.879396
   0.72938      7.006804
   0.75855      7.132413
   0.78773      7.253239
   0.81690      7.364723
   0.84608      7.461780
   0.87525      7.532509
   0.90443      7.597138
   0.93360      7.637293
   0.96278      7.665504
   0.99195      7.686748
   1.02113      7.703400
   1.05030      7.717145
   1.07948      7.727445
   1.10865      7.733434
   1.13783      7.735676
   1.13783      7.735605
   1.15451      7.741169
   1.17118      7.757946
   1.18786      7.786356
   1.20454      7.824554
   1.22122      7.872389
   1.23790      7.931182
   1.25458      7.998852
   1.27125      8.072935
   1.28793      8.160621
   1.30461      8.244629
   1.32129      8.364250
   1.33797      8.454128
   1.35465      8.569535
   1.37132      8.641883
   1.38800      8.715835
   1.40468      8.793300
   1.42136      8.875152
   1.43804      8.925503
   1.45472      8.966309
   1.47139      8.962946
   1.48807      8.886941
   1.50475      8.801790
   1.52143      8.692883
   1.53811      8.587461
   1.55479      8.481270
   1.57146      8.375823
   1.58814      8.272343
   1.60482      8.171285
   1.62150      8.073304
   1.63818      7.979134
   1.65486      7.889182
   1.67153      7.803650
   1.68821      7.724099
   1.70489      7.650519
   1.72157      7.585671
   1.73825      7.530711
   1.75493      7.487607
   1.77160      7.458494
   1.78828      7.445259
   1.78828      7.445259
   1.82163      7.490047
   1.85499      7.564840
   1.88834      7.654832
   1.92169      7.753149
   1.95504      7.855758
   1.98839      7.957557
   2.02174      8.052444
   2.05510      8.128439
   2.08845      8.166215
   2.12180      8.151576
   2.15515      8.097198
   2.18850      7.929291
   2.22185      7.753272
   2.25521      7.578611
   2.28856      7.406394
   2.32191      7.237495
   2.35526      7.072683
   2.38861      6.912554
   2.42196      6.757597
   2.45531      6.608268
   2.48867      6.464911
   2.52202      6.327872
   2.55537      6.197447
   2.58872      6.073865
   2.62207      5.957371
   2.65542      5.848155
   2.68878      5.746399
   2.72213      5.652255
   2.75548      5.565856
   2.78883      5.487316
   2.82218      5.416722
   2.85553      5.354166
   2.88889      5.299726
   2.92224      5.253481
   2.95559      5.215504
   2.98894      5.185867
   3.02229      5.164638
   3.05564      5.151875
   3.08899      5.147603
 
# Band-Index   16
   3.08899      5.817470
   3.05564      5.824584
   3.02229      5.845102
   2.98894      5.879020
   2.95559      5.920104
   2.92224      5.970478
   2.88889      6.029380
   2.85553      6.090941
   2.82218      6.160475
   2.78883      6.236373
   2.75548      6.318819
   2.72213      6.407988
   2.68878      6.504039
   2.65542      6.607079
   2.62207      6.717182
   2.58872      6.834334
   2.55537      6.958557
   2.52202      7.089831
   2.48867      7.228006
   2.45531      7.372960
   2.42196      7.524329
   2.38861      7.681607
   2.35526      7.843259
   2.32191      8.004268
   2.28856      8.135700
   2.25521      8.106444
   2.22185      8.049147
   2.18850      8.046015
   2.15515      8.105188
   2.12180      8.279420
   2.08845      8.450363
   2.05510      8.616117
   2.02174      8.774213
   1.98839      8.922363
   1.95504      9.057896
   1.92169      9.177498
   1.88834      9.277903
   1.85499      9.354432
   1.82163      9.404284
   1.78828      9.427149
   1.78828      9.427152
   1.77160      9.422098
   1.75493      9.412054
   1.73825      9.397403
   1.72157      9.378958
   1.70489      9.357716
   1.68821      9.333512
   1.67153      9.307676
   1.65486      9.280288
   1.63818      9.252057
   1.62150      9.223373
   1.60482      9.194598
   1.58814      9.167934
   1.57146      9.137395
   1.55479      9.109490
   1.53811      9.082154
   1.52143      9.056355
   1.50475      9.033085
   1.48807      9.008693
   1.47139      8.981125
   1.45472      8.977817
   1.43804      8.956133
   1.42136      8.916041
   1.40468      8.888895
   1.38800      8.855509
   1.37132      8.755075
   1.35465      8.747225
   1.33797      8.499616
   1.32129      8.432655
   1.30461      8.373981
   1.28793      8.310821
   1.27125      8.257160
   1.25458      8.208899
   1.23790      8.166322
   1.22122      8.129832
   1.20454      8.099893
   1.18786      8.076217
   1.17118      8.059388
   1.15451      8.049388
   1.13783      8.046080
   1.13783      8.046082
   1.10865      8.036898
   1.07948      8.011260
   1.05030      7.969866
   1.02113      7.915233
   0.99195      7.849429
   0.96278      7.774887
   0.93360      7.694361
   0.90443      7.611345
   0.87525      7.540565
   0.84608      7.473756
   0.81690      7.468201
   0.78773      7.540915
   0.75855      7.655502
   0.72938      7.701696
   0.70020      7.596063
   0.67103      7.475065
   0.64185      7.353003
   0.61268      7.234444
   0.58350      7.119487
   0.55433      7.008317
   0.52515      6.901404
   0.49598      6.798973
   0.46680      6.701124
   0.43763      6.607960
   0.40845      6.519583
   0.37928      6.436028
   0.35010      6.357306
   0.32093      6.283427
   0.29175      6.214251
   0.26258      6.149777
   0.23340      6.089877
   0.20423      6.034536
   0.17505      5.983804
   0.14588      5.938019
   0.11670      5.897738
   0.08753      5.864166
   0.05835      5.838645
   0.02918      5.822612
   0.00000      5.817135
